                                                                                               alfa-MeOH                                                                       
 Results from the Vinet_exp EOS
 *****************************************************************************************************************************
 Volume (cm**3/mol)
                                           P(kbar)
    T(K)    1.0000E-10    5.0000E-10    1.0000E-09    2.5000E-09    5.0000E-09    7.5000E-09    1.0000E-08    2.0000E-08    3.0000E-08    5.0000E-08    7.0000E-08    9.0000E-08    1.2000E-07    2.5000E-07
   25.00    48.8294182    48.8290983    48.8290980    48.8290979    48.8290978    48.8290977    48.8290977    48.8290977    48.8290977    48.8290977    48.8290977    48.8290977    48.8290976    48.8290976
   50.00    48.8560278    48.8558635    48.8558635    48.8558634    48.8558634    48.8558633    48.8558633    48.8558633    48.8558633    48.8558633    48.8558633    48.8558633    48.8558633    48.8558632
   75.00    48.9088762    48.9087701    48.9087701    48.9087700    48.9087700    48.9087700    48.9087700    48.9087700    48.9087700    48.9087700    48.9087700    48.9087700    48.9087700    48.9087699
  100.00    48.9809459    48.9809257    48.9809257    48.9809257    48.9809257    48.9809257    48.9809257    48.9809257    48.9809257    48.9809257    48.9809256    48.9809256    48.9809256    48.9809255
  125.00    49.0669706    49.0669549    49.0669549    49.0669549    49.0669549    49.0669549    49.0669548    49.0669548    49.0669548    49.0669548    49.0669548    49.0669548    49.0669548    49.0669547
  150.00    49.1674688    49.1672367    49.1672367    49.1672367    49.1672367    49.1672367    49.1672367    49.1672367    49.1672367    49.1672367    49.1672367    49.1672366    49.1672366    49.1672365
  175.00    49.2810010    49.2809683    49.2809683    49.2809683    49.2809683    49.2809683    49.2809683    49.2809683    49.2809683    49.2809682    49.2809682    49.2809682    49.2809682    49.2809681
  200.00    49.4079242    49.4079254    49.4079259    49.4079265    49.4079265    49.4079265    49.4079265    49.4079265    49.4079265    49.4079265    49.4079265    49.4079265    49.4079264    49.4079263
  225.00    49.5469984    49.5467063    49.5467063    49.5467063    49.5467063    49.5467063    49.5467063    49.5467062    49.5467062    49.5467062    49.5467062    49.5467062    49.5467062    49.5467060
  250.00    49.6955392    49.6955231    49.6955231    49.6955231    49.6955231    49.6955231    49.6955231    49.6955231    49.6955231    49.6955231    49.6955230    49.6955230    49.6955230    49.6955229
  275.00    49.8603737    49.8600648    49.8600648    49.8600647    49.8600647    49.8600647    49.8600647    49.8600647    49.8600647    49.8600647    49.8600647    49.8600647    49.8600646    49.8600645
  300.00    50.0251254    50.0251202    50.0251198    50.0251194    50.0251194    50.0251194    50.0251194    50.0251194    50.0251194    50.0251193    50.0251193    50.0251193    50.0251193    50.0251192
  325.00    50.1984455    50.1979148    50.1979143    50.1979138    50.1979138    50.1979138    50.1979138    50.1979137    50.1979137    50.1979137    50.1979137    50.1979137    50.1979136    50.1979136
  350.00    50.3645176    50.3644851    50.3644851    50.3644851    50.3644851    50.3644851    50.3644851    50.3644851    50.3644851    50.3644851    50.3644850    50.3644850    50.3644850    50.3644848
  375.00    50.5853484    50.5850926    50.5850744    50.5850561    50.5850561    50.5850561    50.5850561    50.5850561    50.5850561    50.5850561    50.5850561    50.5850560    50.5850560    50.5850558
  400.00    50.7870968    50.7866682    50.7866681    50.7866681    50.7866681    50.7866681    50.7866681    50.7866681    50.7866681    50.7866681    50.7866681    50.7866680    50.7866680    50.7866678
  425.00    50.9904238    50.9903329    50.9903326    50.9903321    50.9903322    50.9903322    50.9903322    50.9903322    50.9903322    50.9903321    50.9903321    50.9903321    50.9903320    50.9903319
  450.00    51.2297108    51.2296614    51.2296614    51.2296614    51.2296614    51.2296614    51.2296614    51.2296614    51.2296614    51.2296614    51.2296613    51.2296613    51.2296613    51.2296611
  475.00    51.5215682    51.5213406    51.5213402    51.5213398    51.5213398    51.5213398    51.5213398    51.5213397    51.5213397    51.5213397    51.5213397    51.5213396    51.5213396    51.5213394
  500.00    51.7904144    51.7900679    51.7900673    51.7900666    51.7900666    51.7900666    51.7900666    51.7900665    51.7900665    51.7900665    51.7900665    51.7900664    51.7900664    51.7900661
 *****************************************************************************************************************************
 Energy (kJ/mol)
                                           P(kbar)
    T(K)    1.0000E-10    5.0000E-10    1.0000E-09    2.5000E-09    5.0000E-09    7.5000E-09    1.0000E-08    2.0000E-08    3.0000E-08    5.0000E-08    7.0000E-08    9.0000E-08    1.2000E-07    2.5000E-07
   25.00  -152276.6319  -152276.6319  -152276.6319  -152276.6319  -152276.6319  -152276.6319  -152276.6319  -152276.6319  -152276.6319  -152276.6319  -152276.6319  -152276.6319  -152276.6319  -152276.6319
   50.00  -152276.7891  -152276.7891  -152276.7891  -152276.7891  -152276.7891  -152276.7891  -152276.7891  -152276.7891  -152276.7891  -152276.7891  -152276.7891  -152276.7891  -152276.7891  -152276.7891
   75.00  -152277.2082  -152277.2082  -152277.2082  -152277.2082  -152277.2082  -152277.2082  -152277.2082  -152277.2082  -152277.2082  -152277.2082  -152277.2082  -152277.2082  -152277.2082  -152277.2082
  100.00  -152277.9202  -152277.9202  -152277.9202  -152277.9202  -152277.9202  -152277.9202  -152277.9202  -152277.9202  -152277.9202  -152277.9202  -152277.9202  -152277.9202  -152277.9202  -152277.9202
  125.00  -152278.9088  -152278.9088  -152278.9088  -152278.9088  -152278.9088  -152278.9088  -152278.9088  -152278.9088  -152278.9088  -152278.9088  -152278.9088  -152278.9088  -152278.9088  -152278.9088
  150.00  -152280.1786  -152280.1786  -152280.1786  -152280.1786  -152280.1786  -152280.1786  -152280.1786  -152280.1786  -152280.1786  -152280.1786  -152280.1786  -152280.1786  -152280.1786  -152280.1786
  175.00  -152281.6961  -152281.6961  -152281.6961  -152281.6961  -152281.6961  -152281.6961  -152281.6961  -152281.6961  -152281.6961  -152281.6961  -152281.6961  -152281.6961  -152281.6961  -152281.6961
  200.00  -152283.4554  -152283.4554  -152283.4554  -152283.4554  -152283.4554  -152283.4554  -152283.4554  -152283.4554  -152283.4554  -152283.4554  -152283.4554  -152283.4554  -152283.4554  -152283.4554
  225.00  -152285.4454  -152285.4454  -152285.4454  -152285.4454  -152285.4454  -152285.4454  -152285.4454  -152285.4454  -152285.4454  -152285.4454  -152285.4454  -152285.4454  -152285.4454  -152285.4454
  250.00  -152287.6592  -152287.6592  -152287.6592  -152287.6592  -152287.6592  -152287.6592  -152287.6592  -152287.6592  -152287.6592  -152287.6592  -152287.6592  -152287.6592  -152287.6592  -152287.6592
  275.00  -152290.0878  -152290.0878  -152290.0878  -152290.0878  -152290.0878  -152290.0878  -152290.0878  -152290.0878  -152290.0878  -152290.0878  -152290.0878  -152290.0878  -152290.0878  -152290.0878
  300.00  -152292.7140  -152292.7140  -152292.7140  -152292.7140  -152292.7140  -152292.7140  -152292.7140  -152292.7140  -152292.7140  -152292.7140  -152292.7140  -152292.7140  -152292.7140  -152292.7140
  325.00  -152295.5510  -152295.5510  -152295.5510  -152295.5510  -152295.5510  -152295.5510  -152295.5510  -152295.5510  -152295.5510  -152295.5510  -152295.5510  -152295.5510  -152295.5510  -152295.5510
  350.00  -152298.5612  -152298.5612  -152298.5612  -152298.5612  -152298.5612  -152298.5612  -152298.5612  -152298.5612  -152298.5612  -152298.5612  -152298.5612  -152298.5612  -152298.5612  -152298.5612
  375.00  -152301.8158  -152301.8158  -152301.8158  -152301.8158  -152301.8158  -152301.8158  -152301.8158  -152301.8158  -152301.8158  -152301.8158  -152301.8158  -152301.8158  -152301.8158  -152301.8158
  400.00  -152305.2316  -152305.2316  -152305.2316  -152305.2316  -152305.2316  -152305.2316  -152305.2316  -152305.2316  -152305.2316  -152305.2316  -152305.2316  -152305.2316  -152305.2316  -152305.2316
  425.00  -152308.8316  -152308.8316  -152308.8316  -152308.8316  -152308.8316  -152308.8316  -152308.8316  -152308.8316  -152308.8316  -152308.8316  -152308.8316  -152308.8316  -152308.8316  -152308.8316
  450.00  -152312.6364  -152312.6364  -152312.6364  -152312.6364  -152312.6364  -152312.6364  -152312.6364  -152312.6364  -152312.6364  -152312.6364  -152312.6364  -152312.6364  -152312.6364  -152312.6364
  475.00  -152316.6714  -152316.6714  -152316.6714  -152316.6714  -152316.6714  -152316.6714  -152316.6714  -152316.6714  -152316.6714  -152316.6714  -152316.6714  -152316.6714  -152316.6714  -152316.6714
  500.00  -152320.8434  -152320.8434  -152320.8434  -152320.8434  -152320.8434  -152320.8434  -152320.8434  -152320.8434  -152320.8434  -152320.8434  -152320.8434  -152320.8434  -152320.8434  -152320.8434
 *****************************************************************************************************************************
 Gibbs Free Energy (kJ/mol)
                                           P(kbar)
    T(K)    1.0000E-10    5.0000E-10    1.0000E-09    2.5000E-09    5.0000E-09    7.5000E-09    1.0000E-08    2.0000E-08    3.0000E-08    5.0000E-08    7.0000E-08    9.0000E-08    1.2000E-07    2.5000E-07
   25.00  -152276.6319  -152276.6319  -152276.6319  -152276.6319  -152276.6319  -152276.6319  -152276.6319  -152276.6319  -152276.6319  -152276.6319  -152276.6319  -152276.6319  -152276.6319  -152276.6319
   50.00  -152276.7891  -152276.7891  -152276.7891  -152276.7891  -152276.7891  -152276.7891  -152276.7891  -152276.7891  -152276.7891  -152276.7891  -152276.7891  -152276.7891  -152276.7891  -152276.7891
   75.00  -152277.2082  -152277.2082  -152277.2082  -152277.2082  -152277.2082  -152277.2082  -152277.2082  -152277.2082  -152277.2082  -152277.2082  -152277.2082  -152277.2082  -152277.2082  -152277.2082
  100.00  -152277.9202  -152277.9202  -152277.9202  -152277.9202  -152277.9202  -152277.9202  -152277.9202  -152277.9202  -152277.9202  -152277.9202  -152277.9202  -152277.9202  -152277.9202  -152277.9202
  125.00  -152278.9088  -152278.9088  -152278.9088  -152278.9088  -152278.9088  -152278.9088  -152278.9088  -152278.9088  -152278.9088  -152278.9088  -152278.9088  -152278.9088  -152278.9088  -152278.9088
  150.00  -152280.1786  -152280.1786  -152280.1786  -152280.1786  -152280.1786  -152280.1786  -152280.1786  -152280.1786  -152280.1786  -152280.1786  -152280.1786  -152280.1786  -152280.1786  -152280.1786
  175.00  -152281.6961  -152281.6961  -152281.6961  -152281.6961  -152281.6961  -152281.6961  -152281.6961  -152281.6961  -152281.6961  -152281.6961  -152281.6961  -152281.6961  -152281.6961  -152281.6961
  200.00  -152283.4554  -152283.4554  -152283.4554  -152283.4554  -152283.4554  -152283.4554  -152283.4554  -152283.4554  -152283.4554  -152283.4554  -152283.4554  -152283.4554  -152283.4554  -152283.4554
  225.00  -152285.4454  -152285.4454  -152285.4454  -152285.4454  -152285.4454  -152285.4454  -152285.4454  -152285.4454  -152285.4454  -152285.4454  -152285.4454  -152285.4454  -152285.4454  -152285.4454
  250.00  -152287.6592  -152287.6592  -152287.6592  -152287.6592  -152287.6592  -152287.6592  -152287.6592  -152287.6592  -152287.6592  -152287.6592  -152287.6592  -152287.6592  -152287.6592  -152287.6592
  275.00  -152290.0878  -152290.0878  -152290.0878  -152290.0878  -152290.0878  -152290.0878  -152290.0878  -152290.0878  -152290.0878  -152290.0878  -152290.0878  -152290.0878  -152290.0878  -152290.0878
  300.00  -152292.7140  -152292.7140  -152292.7140  -152292.7140  -152292.7140  -152292.7140  -152292.7140  -152292.7140  -152292.7140  -152292.7140  -152292.7140  -152292.7140  -152292.7140  -152292.7140
  325.00  -152295.5510  -152295.5510  -152295.5510  -152295.5510  -152295.5510  -152295.5510  -152295.5510  -152295.5510  -152295.5510  -152295.5510  -152295.5510  -152295.5510  -152295.5510  -152295.5510
  350.00  -152298.5612  -152298.5612  -152298.5612  -152298.5612  -152298.5612  -152298.5612  -152298.5612  -152298.5612  -152298.5612  -152298.5612  -152298.5612  -152298.5612  -152298.5612  -152298.5612
  375.00  -152301.8158  -152301.8158  -152301.8158  -152301.8158  -152301.8158  -152301.8158  -152301.8158  -152301.8158  -152301.8158  -152301.8158  -152301.8158  -152301.8158  -152301.8158  -152301.8158
  400.00  -152305.2316  -152305.2316  -152305.2316  -152305.2316  -152305.2316  -152305.2316  -152305.2316  -152305.2316  -152305.2316  -152305.2316  -152305.2316  -152305.2316  -152305.2316  -152305.2316
  425.00  -152308.8316  -152308.8316  -152308.8316  -152308.8316  -152308.8316  -152308.8316  -152308.8316  -152308.8316  -152308.8316  -152308.8316  -152308.8316  -152308.8316  -152308.8316  -152308.8315
  450.00  -152312.6364  -152312.6364  -152312.6364  -152312.6364  -152312.6364  -152312.6364  -152312.6364  -152312.6364  -152312.6364  -152312.6364  -152312.6364  -152312.6364  -152312.6364  -152312.6364
  475.00  -152316.6714  -152316.6714  -152316.6714  -152316.6714  -152316.6714  -152316.6714  -152316.6714  -152316.6714  -152316.6714  -152316.6714  -152316.6714  -152316.6714  -152316.6714  -152316.6714
  500.00  -152320.8434  -152320.8434  -152320.8434  -152320.8434  -152320.8434  -152320.8434  -152320.8434  -152320.8434  -152320.8434  -152320.8434  -152320.8434  -152320.8434  -152320.8434  -152320.8434
